[TA Ascii File]
DSC-60

File Name :	C:\TAData\2021Akiba\rac-IrC9 2023-08-28 15-48.txt

[File Information]
File Name:	rac-IrC9 2023-08-28 15-48.tad
Sample Name:	rac-IrC9
Lot No:	
Acquire Date:	23/08/28
Acquire Time:	15:48:10(+0900)
Detector Type:	DSC-60
Detector Serial No:	C30945500120SA
Operator:	
Atmosphere:	窒素
Gas Flow:	50[ml/min]
Annotation:	
Pan Name:	ｱﾙﾐﾆｳﾑ
Sample Weight:	2.900[mg]
Molecular Weight:	2070.08


[Measurements Program]
[Temperature Program]
Start Temp.	
Temp. Rate	Hold Temp.	Hold Time
[ C/min  ]	[   C  ]	[ min  ]
10.00	150.0	0
-10.00	-20.0	0
10.00	150.0	0
-10.00	-20.0	0


[Data]
Time	Temp	DSC
sec	ﾟC	mW
0.000000	24.249399	-0.031754
1.000000	24.249001	-0.031567
2.000000	24.248499	-0.031237
3.000000	24.248899	-0.030821
4.000000	24.250401	-0.031242
5.000000	24.254601	-0.033878
6.000000	24.276499	-0.040546
7.000000	24.315701	-0.054017
8.000000	24.377199	-0.076763
9.000000	24.458900	-0.110129
10.000000	24.560801	-0.154105
11.000000	24.678900	-0.207591
12.000000	24.810999	-0.267837
13.000000	24.952099	-0.331583
14.000000	25.099800	-0.395775
15.000000	25.256001	-0.457881
16.000000	25.415600	-0.515768
17.000000	25.577799	-0.568221
18.000000	25.742800	-0.615005
19.000000	25.910500	-0.655800
20.000000	26.076500	-0.690826
21.000000	26.246201	-0.720619
22.000000	26.416800	-0.745838
23.000000	26.588800	-0.766929
24.000000	26.758900	-0.784504
25.000000	26.929199	-0.799147
26.000000	27.100899	-0.811125
27.000000	27.271700	-0.820903
28.000000	27.441799	-0.829021
29.000000	27.613400	-0.835752
30.000000	27.785299	-0.841291
31.000000	27.957300	-0.846056
32.000000	28.126900	-0.850107
33.000000	28.299900	-0.853427
34.000000	28.470400	-0.856379
35.000000	28.645199	-0.858900
36.000000	28.815001	-0.861047
37.000000	28.986799	-0.863009
38.000000	29.159899	-0.864769
39.000000	29.331499	-0.866247
40.000000	29.503300	-0.867630
41.000000	29.677000	-0.868907
42.000000	29.848099	-0.870093
43.000000	30.018099	-0.871170
44.000000	30.189499	-0.872016
45.000000	30.359100	-0.872667
46.000000	30.530600	-0.873284
47.000000	30.702700	-0.873820
48.000000	30.875799	-0.874394
49.000000	31.043999	-0.875068
50.000000	31.215399	-0.875882
51.000000	31.384399	-0.876680
52.000000	31.556099	-0.877465
53.000000	31.726599	-0.878202
54.000000	31.898199	-0.879072
55.000000	32.070900	-0.879876
56.000000	32.241100	-0.880737
57.000000	32.410797	-0.881660
58.000000	32.583500	-0.882760
59.000000	32.755001	-0.883818
60.000000	32.926899	-0.884947
61.000000	33.098099	-0.886056
62.000000	33.267799	-0.886932
63.000000	33.437199	-0.887726
64.000000	33.611401	-0.888472
65.000000	33.782799	-0.889123
66.000000	33.953899	-0.889859
67.000000	34.127201	-0.890792
68.000000	34.294498	-0.891476
69.000000	34.466499	-0.892045
70.000000	34.636700	-0.892634
71.000000	34.807999	-0.893122
72.000000	34.978001	-0.893567
73.000000	35.152599	-0.894184
74.000000	35.322399	-0.894901
75.000000	35.494499	-0.895748
76.000000	35.666901	-0.896556
77.000000	35.838398	-0.897293
78.000000	36.006901	-0.898001
79.000000	36.176098	-0.898795
80.000000	36.347099	-0.899570
81.000000	36.518898	-0.900297
82.000000	36.690899	-0.900929
83.000000	36.860001	-0.901546
84.000000	37.031300	-0.902058
85.000000	37.201401	-0.902512
86.000000	37.370201	-0.903038
87.000000	37.541500	-0.903608
88.000000	37.712299	-0.904119
89.000000	37.883598	-0.904626
90.000000	38.051498	-0.905167
91.000000	38.223099	-0.905578
92.000000	38.394897	-0.906071
93.000000	38.564301	-0.906640
94.000000	38.736900	-0.907358
95.000000	38.906101	-0.907951
96.000000	39.077698	-0.908760
97.000000	39.246399	-0.909625
98.000000	39.418999	-0.910376
99.000000	39.588699	-0.910931
100.000000	39.758698	-0.911606
101.000000	39.931801	-0.912209
102.000000	40.099701	-0.912754
103.000000	40.271099	-0.913395
104.000000	40.441601	-0.914069
105.000000	40.611900	-0.914816
106.000000	40.782200	-0.915581
107.000000	40.952000	-0.916323
108.000000	41.122200	-0.917136
109.000000	41.295998	-0.918102
110.000000	41.463699	-0.918891
111.000000	41.638500	-0.919771
112.000000	41.808998	-0.920661
113.000000	41.979401	-0.921441
114.000000	42.147301	-0.921972
115.000000	42.317898	-0.922647
116.000000	42.489899	-0.923288
117.000000	42.662300	-0.923866
118.000000	42.832699	-0.924402
119.000000	43.004898	-0.925072
120.000000	43.173500	-0.925660
121.000000	43.343800	-0.926196
122.000000	43.512600	-0.926612
123.000000	43.682999	-0.927172
124.000000	43.853699	-0.927794
125.000000	44.022598	-0.928435
126.000000	44.194199	-0.929114
127.000000	44.365997	-0.929937
128.000000	44.536198	-0.930908
129.000000	44.706200	-0.931807
130.000000	44.876198	-0.932668
131.000000	45.046898	-0.933520
132.000000	45.216198	-0.934419
133.000000	45.386700	-0.935127
134.000000	45.557301	-0.935888
135.000000	45.728397	-0.936801
136.000000	45.897499	-0.937586
137.000000	46.067799	-0.938375
138.000000	46.238598	-0.939265
139.000000	46.406998	-0.940040
140.000000	46.580997	-0.940829
141.000000	46.750298	-0.941743
142.000000	46.920898	-0.942647
143.000000	47.090199	-0.943498
144.000000	47.258499	-0.944580
145.000000	47.429298	-0.945670
146.000000	47.601700	-0.946646
147.000000	47.772800	-0.947593
148.000000	47.941498	-0.948583
149.000000	48.110500	-0.949291
150.000000	48.282600	-0.949894
151.000000	48.451099	-0.950569
152.000000	48.624001	-0.951152
153.000000	48.795799	-0.951631
154.000000	48.963501	-0.952229
155.000000	49.133999	-0.952673
156.000000	49.303398	-0.952946
157.000000	49.472900	-0.953367
158.000000	49.642899	-0.953740
159.000000	49.813900	-0.954080
160.000000	49.983299	-0.954506
161.000000	50.154598	-0.955089
162.000000	50.325699	-0.955577
163.000000	50.496498	-0.956161
164.000000	50.666000	-0.956735
165.000000	50.835899	-0.957419
166.000000	51.004101	-0.958218
167.000000	51.174000	-0.959184
168.000000	51.341999	-0.960342
169.000000	51.513699	-0.961782
170.000000	51.684399	-0.963312
171.000000	51.852898	-0.964857
172.000000	52.021198	-0.966541
173.000000	52.192299	-0.968278
174.000000	52.360901	-0.970225
175.000000	52.530899	-0.972239
176.000000	52.700298	-0.974611
177.000000	52.869400	-0.977180
178.000000	53.040100	-0.979969
179.000000	53.209900	-0.982997
180.000000	53.377499	-0.986432
181.000000	53.548397	-0.990149
182.000000	53.717598	-0.994066
183.000000	53.887398	-0.998309
184.000000	54.058899	-1.002615
185.000000	54.229099	-1.006958
186.000000	54.395901	-1.011178
187.000000	54.568897	-1.015272
188.000000	54.737499	-1.019085
189.000000	54.906700	-1.022773
190.000000	55.075397	-1.026189
191.000000	55.243000	-1.029303
192.000000	55.413498	-1.032173
193.000000	55.583401	-1.034790
194.000000	55.751999	-1.037196
195.000000	55.922100	-1.039258
196.000000	56.092697	-1.041348
197.000000	56.259899	-1.043218
198.000000	56.432697	-1.044979
199.000000	56.600597	-1.046572
200.000000	56.770397	-1.048270
201.000000	56.939400	-1.049853
202.000000	57.108200	-1.051652
203.000000	57.278400	-1.053374
204.000000	57.447998	-1.055020
205.000000	57.619400	-1.056560
206.000000	57.789700	-1.058019
207.000000	57.958599	-1.059263
208.000000	58.125797	-1.060368
209.000000	58.297199	-1.061248
210.000000	58.468300	-1.061918
211.000000	58.638599	-1.062205
212.000000	58.806499	-1.062147
213.000000	58.976601	-1.061650
214.000000	59.145500	-1.060851
215.000000	59.315800	-1.059588
216.000000	59.486198	-1.057933
217.000000	59.655499	-1.055929
218.000000	59.826500	-1.053781
219.000000	59.995899	-1.051164
220.000000	60.164898	-1.048361
221.000000	60.337097	-1.045275
222.000000	60.506699	-1.041879
223.000000	60.678898	-1.038014
224.000000	60.847401	-1.034168
225.000000	61.016098	-1.030231
226.000000	61.185600	-1.026299
227.000000	61.355598	-1.022276
228.000000	61.527798	-1.018559
229.000000	61.694798	-1.014770
230.000000	61.864399	-1.011082
231.000000	62.034199	-1.007594
232.000000	62.203098	-1.004284
233.000000	62.374298	-1.001007
234.000000	62.544498	-0.997956
235.000000	62.713997	-0.995042
236.000000	62.882797	-0.992344
237.000000	63.053799	-0.989928
238.000000	63.223999	-0.987828
239.000000	63.392899	-0.986006
240.000000	63.562698	-0.984303
241.000000	63.732098	-0.982743
242.000000	63.900398	-0.981328
243.000000	64.070099	-0.980098
244.000000	64.238998	-0.978864
245.000000	64.408394	-0.977912
246.000000	64.578499	-0.976998
247.000000	64.748497	-0.976424
248.000000	64.915298	-0.975927
249.000000	65.087700	-0.975573
250.000000	65.253899	-0.975348
251.000000	65.424995	-0.975329
252.000000	65.593002	-0.975152
253.000000	65.762299	-0.975104
254.000000	65.931496	-0.975310
255.000000	66.102898	-0.975472
256.000000	66.271797	-0.975625
257.000000	66.442596	-0.975903
258.000000	66.611496	-0.976214
259.000000	66.781296	-0.976338
260.000000	66.951302	-0.976477
261.000000	67.119202	-0.976563
262.000000	67.287300	-0.976515
263.000000	67.456802	-0.976434
264.000000	67.625702	-0.976443
265.000000	67.795601	-0.976525
266.000000	67.963898	-0.976659
267.000000	68.133995	-0.977003
268.000000	68.305099	-0.977204
269.000000	68.474899	-0.977496
270.000000	68.641602	-0.977706
271.000000	68.811897	-0.977936
272.000000	68.981102	-0.978137
273.000000	69.150497	-0.978462
274.000000	69.321297	-0.978673
275.000000	69.488998	-0.978940
276.000000	69.658699	-0.979261
277.000000	69.826302	-0.979491
278.000000	69.994095	-0.979543
279.000000	70.163200	-0.979682
280.000000	70.332001	-0.979868
281.000000	70.502296	-0.979945
282.000000	70.671501	-0.980160
283.000000	70.837898	-0.980586
284.000000	71.006195	-0.981055
285.000000	71.175995	-0.981595
286.000000	71.345100	-0.982356
287.000000	71.513397	-0.983193
288.000000	71.681198	-0.984069
289.000000	71.851196	-0.984930
290.000000	72.019699	-0.985657
291.000000	72.188400	-0.986212
292.000000	72.356400	-0.986676
293.000000	72.525101	-0.986987
294.000000	72.693199	-0.987264
295.000000	72.861595	-0.987695
296.000000	73.029396	-0.988187
297.000000	73.199402	-0.988718
298.000000	73.367699	-0.989221
299.000000	73.535797	-0.989675
300.000000	73.705696	-0.990053
301.000000	73.874397	-0.990373
302.000000	74.041801	-0.990632
303.000000	74.211197	-0.990933
304.000000	74.379097	-0.991306
305.000000	74.548500	-0.991684
306.000000	74.718796	-0.992009
307.000000	74.886299	-0.992349
308.000000	75.053696	-0.992679
309.000000	75.225395	-0.993086
310.000000	75.392899	-0.993425
311.000000	75.563499	-0.993794
312.000000	75.732399	-0.994100
313.000000	75.900497	-0.994406
314.000000	76.070496	-0.994593
315.000000	76.239502	-0.994669
316.000000	76.405197	-0.994660
317.000000	76.576302	-0.994660
318.000000	76.743996	-0.994564
319.000000	76.912598	-0.994411
320.000000	77.081497	-0.994296
321.000000	77.252800	-0.994191
322.000000	77.421402	-0.994052
323.000000	77.591896	-0.993961
324.000000	77.759697	-0.993708
325.000000	77.927002	-0.993263
326.000000	78.096199	-0.992756
327.000000	78.265602	-0.992019
328.000000	78.433701	-0.991144
329.000000	78.601295	-0.990254
330.000000	78.770699	-0.989388
331.000000	78.939995	-0.988331
332.000000	79.109795	-0.987011
333.000000	79.277298	-0.985556
334.000000	79.447701	-0.984011
335.000000	79.615395	-0.982457
336.000000	79.785202	-0.981098
337.000000	79.951897	-0.980122
338.000000	80.122696	-0.979467
339.000000	80.291100	-0.979070
340.000000	80.459000	-0.979031
341.000000	80.627098	-0.979108
342.000000	80.796402	-0.979185
343.000000	80.964897	-0.979189
344.000000	81.135101	-0.979213
345.000000	81.301102	-0.979012
346.000000	81.469200	-0.978783
347.000000	81.635895	-0.978543
348.000000	81.806496	-0.978204
349.000000	81.973297	-0.977840
350.000000	82.144096	-0.977371
351.000000	82.310799	-0.976912
352.000000	82.477600	-0.976491
353.000000	82.647095	-0.976195
354.000000	82.813896	-0.976066
355.000000	82.981895	-0.976104
356.000000	83.149895	-0.976128
357.000000	83.317795	-0.976372
358.000000	83.486900	-0.976778
359.000000	83.652496	-0.977041
360.000000	83.823296	-0.977467
361.000000	83.989998	-0.977950
362.000000	84.159401	-0.978424
363.000000	84.326500	-0.978984
364.000000	84.494995	-0.979677
365.000000	84.662796	-0.980313
366.000000	84.831299	-0.981007
367.000000	85.002098	-0.981744
368.000000	85.169800	-0.982509
369.000000	85.339996	-0.983370
370.000000	85.505798	-0.984193
371.000000	85.674896	-0.984906
372.000000	85.843498	-0.985609
373.000000	86.013000	-0.986078
374.000000	86.180099	-0.986360
375.000000	86.347595	-0.986628
376.000000	86.515594	-0.987164
377.000000	86.680496	-0.987738
378.000000	86.852699	-0.988446
379.000000	87.020401	-0.989398
380.000000	87.188400	-0.990507
381.000000	87.356598	-0.991459
382.000000	87.524200	-0.992402
383.000000	87.691101	-0.993229
384.000000	87.861801	-0.994066
385.000000	88.029396	-0.994722
386.000000	88.197998	-0.995415
387.000000	88.368095	-0.995951
388.000000	88.534195	-0.996583
389.000000	88.701897	-0.996994
390.000000	88.870300	-0.997386
391.000000	89.037102	-0.997764
392.000000	89.206696	-0.998152
393.000000	89.374100	-0.998276
394.000000	89.543297	-0.998396
395.000000	89.711800	-0.998420
396.000000	89.880196	-0.998400
397.000000	90.047798	-0.998410
398.000000	90.217598	-0.998597
399.000000	90.386101	-0.998750
400.000000	90.551697	-0.998960
401.000000	90.720398	-0.999161
402.000000	90.890594	-0.999194
403.000000	91.057396	-0.999171
404.000000	91.227501	-0.999166
405.000000	91.395599	-0.999228
406.000000	91.561897	-0.999046
407.000000	91.727798	-0.998855
408.000000	91.896194	-0.998697
409.000000	92.064598	-0.998463
410.000000	92.229599	-0.998094
411.000000	92.396698	-0.997922
412.000000	92.563599	-0.998013
413.000000	92.735397	-0.998142
414.000000	92.902298	-0.998386
415.000000	93.072899	-0.998750
416.000000	93.240097	-0.999314
417.000000	93.407700	-0.999922
418.000000	93.573997	-1.000486
419.000000	93.741096	-1.001031
420.000000	93.909897	-1.001467
421.000000	94.075798	-1.001845
422.000000	94.244598	-1.002089
423.000000	94.410995	-1.002357
424.000000	94.578995	-1.002844
425.000000	94.746399	-1.003313
426.000000	94.915199	-1.003706
427.000000	95.080894	-1.004150
428.000000	95.249199	-1.004691
429.000000	95.416000	-1.005016
430.000000	95.585594	-1.005480
431.000000	95.752998	-1.005963
432.000000	95.921799	-1.006451
433.000000	96.087700	-1.006920
434.000000	96.255402	-1.007494
435.000000	96.422501	-1.008035
436.000000	96.592796	-1.008637
437.000000	96.759796	-1.009154
438.000000	96.925896	-1.009570
439.000000	97.095398	-1.009962
440.000000	97.261894	-1.010431
441.000000	97.429901	-1.010713
442.000000	97.596794	-1.010943
443.000000	97.763901	-1.011264
444.000000	97.930901	-1.011598
445.000000	98.100700	-1.011962
446.000000	98.265900	-1.012340
447.000000	98.431999	-1.012723
448.000000	98.600700	-1.012943
449.000000	98.767097	-1.013182
450.000000	98.933800	-1.013258
451.000000	99.100700	-1.013445
452.000000	99.269600	-1.013646
453.000000	99.433998	-1.013986
454.000000	99.601196	-1.014220
455.000000	99.767998	-1.014583
456.000000	99.934196	-1.014813
457.000000	100.102501	-1.015282
458.000000	100.269897	-1.015889
459.000000	100.436401	-1.016607
460.000000	100.603195	-1.017320
461.000000	100.772095	-1.018104
462.000000	100.938995	-1.018803
463.000000	101.106300	-1.019396
464.000000	101.274796	-1.020018
465.000000	101.441498	-1.020683
466.000000	101.610298	-1.021367
467.000000	101.776398	-1.021888
468.000000	101.941597	-1.022256
469.000000	102.110001	-1.022529
470.000000	102.275597	-1.022768
471.000000	102.444496	-1.022917
472.000000	102.609901	-1.023194
473.000000	102.777298	-1.023649
474.000000	102.945099	-1.024084
475.000000	103.111900	-1.024634
476.000000	103.278198	-1.025423
477.000000	103.445694	-1.026222
478.000000	103.613297	-1.027059
479.000000	103.780197	-1.027959
480.000000	103.947899	-1.028839
481.000000	104.115097	-1.029700
482.000000	104.281395	-1.030432
483.000000	104.448601	-1.031202
484.000000	104.617096	-1.031838
485.000000	104.784798	-1.032412
486.000000	104.950897	-1.032934
487.000000	105.116997	-1.033441
488.000000	105.284500	-1.033780
489.000000	105.450600	-1.034163
490.000000	105.617897	-1.034464
491.000000	105.787598	-1.034747
492.000000	105.953201	-1.035201
493.000000	106.120895	-1.035665
494.000000	106.289597	-1.035933
495.000000	106.457199	-1.036301
496.000000	106.623199	-1.036607
497.000000	106.791397	-1.036909
498.000000	106.957901	-1.037244
499.000000	107.122498	-1.037818
500.000000	107.293198	-1.038363
501.000000	107.461395	-1.038966
502.000000	107.626801	-1.039530
503.000000	107.794701	-1.040233
504.000000	107.961700	-1.040879
505.000000	108.128998	-1.041544
506.000000	108.296799	-1.042243
507.000000	108.463097	-1.042826
508.000000	108.627495	-1.043175
509.000000	108.794701	-1.043816
510.000000	108.961899	-1.044362
511.000000	109.129295	-1.044845
512.000000	109.296295	-1.045433
513.000000	109.462700	-1.046213
514.000000	109.631798	-1.046730
515.000000	109.798195	-1.047151
516.000000	109.962395	-1.047624
517.000000	110.130196	-1.048083
518.000000	110.295494	-1.048567
519.000000	110.461800	-1.049045
520.000000	110.630501	-1.049676
521.000000	110.796097	-1.050360
522.000000	110.961800	-1.051154
523.000000	111.130898	-1.051939
524.000000	111.297195	-1.052700
525.000000	111.461494	-1.053417
526.000000	111.627998	-1.054087
527.000000	111.792900	-1.054780
528.000000	111.959099	-1.055426
529.000000	112.127197	-1.055986
530.000000	112.291901	-1.056933
531.000000	112.458595	-1.057899
532.000000	112.624901	-1.058966
533.000000	112.790298	-1.060081
534.000000	112.957100	-1.061487
535.000000	113.125694	-1.062659
536.000000	113.292297	-1.063779
537.000000	113.457298	-1.064826
538.000000	113.624794	-1.065941
539.000000	113.790001	-1.066864
540.000000	113.955795	-1.067572
541.000000	114.122894	-1.068419
542.000000	114.288597	-1.069136
543.000000	114.453400	-1.069777
544.000000	114.620300	-1.070648
545.000000	114.786194	-1.071767
546.000000	114.953194	-1.072949
547.000000	115.119698	-1.074355
548.000000	115.286499	-1.075900
549.000000	115.452499	-1.077598
550.000000	115.620201	-1.079297
551.000000	115.784798	-1.080923
552.000000	115.954697	-1.082325
553.000000	116.121094	-1.083798
554.000000	116.287796	-1.085099
555.000000	116.454498	-1.086276
556.000000	116.622696	-1.087371
557.000000	116.788696	-1.088520
558.000000	116.956299	-1.089472
559.000000	117.121498	-1.090352
560.000000	117.287300	-1.091246
561.000000	117.453300	-1.092179
562.000000	117.618401	-1.093088
563.000000	117.785194	-1.094083
564.000000	117.952400	-1.095092
565.000000	118.118896	-1.096126
566.000000	118.282700	-1.097278
567.000000	118.447495	-1.098584
568.000000	118.612000	-1.099976
569.000000	118.780594	-1.101493
570.000000	118.947495	-1.103186
571.000000	119.111694	-1.104899
572.000000	119.277794	-1.106621
573.000000	119.445900	-1.108496
574.000000	119.609200	-1.110409
575.000000	119.775497	-1.112428
576.000000	119.943398	-1.114605
577.000000	120.108994	-1.116906
578.000000	120.273598	-1.119154
579.000000	120.440094	-1.121326
580.000000	120.606697	-1.123369
581.000000	120.770401	-1.125339
582.000000	120.939194	-1.127281
583.000000	121.105301	-1.129099
584.000000	121.269295	-1.131003
585.000000	121.437401	-1.133122
586.000000	121.605797	-1.135241
587.000000	121.770897	-1.137428
588.000000	121.936501	-1.139843
589.000000	122.103699	-1.142259
590.000000	122.269096	-1.144646
591.000000	122.434395	-1.147095
592.000000	122.600197	-1.149702
593.000000	122.766098	-1.152448
594.000000	122.932098	-1.155333
595.000000	123.097099	-1.158409
596.000000	123.261696	-1.161666
597.000000	123.424995	-1.164838
598.000000	123.592094	-1.168000
599.000000	123.759796	-1.171377
600.000000	123.923698	-1.174664
601.000000	124.088600	-1.178156
602.000000	124.252701	-1.181858
603.000000	124.418694	-1.185642
604.000000	124.584595	-1.189507
605.000000	124.749199	-1.193616
606.000000	124.916199	-1.198022
607.000000	125.078499	-1.202634
608.000000	125.243599	-1.207527
609.000000	125.410095	-1.212588
610.000000	125.573997	-1.217941
611.000000	125.742699	-1.223433
612.000000	125.906700	-1.229269
613.000000	126.072395	-1.235540
614.000000	126.237801	-1.242161
615.000000	126.402100	-1.249159
616.000000	126.566498	-1.256344
617.000000	126.732399	-1.263601
618.000000	126.897400	-1.270982
619.000000	127.064796	-1.278718
620.000000	127.228500	-1.286697
621.000000	127.393700	-1.294858
622.000000	127.558395	-1.303497
