TITLE,c
DATA TYPE,ULTRAVIOLET SPECTRUM
ORIGIN,JASCO
OWNER,
DATE,24/07/09
TIME,17:28:58
SPECTROMETER/DATA SYSTEM,
LOCALE,1041
RESOLUTION,
DELTAX,-0.2
XUNITS,NANOMETERS
YUNITS,ABSORBANCE
FIRSTX,  800.0000
LASTX,  200.0000
NPOINTS,    3001
FIRSTY,     0.00076
MAXY,     0.74634
MINY,    -0.00008
XYDATA
800.0000,0.000755727
799.8000,0.000754891
799.6000,0.000754413
799.4000,0.000752444
799.2000,0.000750951
799.0000,0.000748325
798.8000,0.000749578
798.6000,0.000748683
798.4000,0.000742773
798.2000,0.000739788
798.0000,0.000734476
797.8000,0.000732744
797.6000,0.000727014
797.4000,0.000724447
797.2000,0.000726298
797.0000,0.000728805
796.8000,0.000727969
796.6000,0.000732983
796.4000,0.000735431
796.2000,0.000740743
796.0000,0.000740445
795.8000,0.000742116
795.6000,0.000738953
795.4000,0.000740027
795.2000,0.000743728
795.0000,0.00074731
794.8000,0.000750235
794.6000,0.000750712
794.4000,0.000755309
794.2000,0.000763248
794.0000,0.000762591
793.8000,0.000761398
793.6000,0.000760562
793.4000,0.000755548
793.2000,0.000752563
793.0000,0.000744146
792.8000,0.000746713
792.6000,0.000746474
792.4000,0.000748623
792.2000,0.000750295
792.0000,0.000749936
791.8000,0.000748265
791.6000,0.000750175
791.4000,0.000751011
791.2000,0.000748026
791.0000,0.000738177
790.8000,0.000735073
790.6000,0.000736744
790.4000,0.000735311
790.2000,0.000736147
790.0000,0.000734058
789.8000,0.000732625
789.6000,0.000732028
789.4000,0.000730178
789.2000,0.000728685
789.0000,0.000726596
788.8000,0.000720985
788.6000,0.00071806
788.4000,0.000710061
788.2000,0.000708867
788.0000,0.000707375
787.8000,0.000705524
787.6000,0.000705584
787.4000,0.00070433
787.2000,0.000706897
787.0000,0.000706897
786.8000,0.000709046
786.6000,0.000711553
786.4000,0.000709524
786.2000,0.000705285
786.0000,0.000707016
785.8000,0.000701584
785.6000,0.000705405
785.4000,0.000705643
785.2000,0.000710479
785.0000,0.000711792
784.8000,0.000712448
784.6000,0.000713284
784.4000,0.000714597
784.2000,0.000711732
784.0000,0.000708389
783.8000,0.000705464
783.6000,0.000702718
783.4000,0.000702957
783.2000,0.000701107
783.0000,0.000698599
782.8000,0.000689586
782.6000,0.000689168
782.4000,0.000683198
782.2000,0.000681766
782.0000,0.000676751
781.8000,0.000670603
781.6000,0.000661589
781.4000,0.00065944
781.2000,0.000655441
781.0000,0.000652934
780.8000,0.000654844
780.6000,0.0006595
780.4000,0.000661052
780.2000,0.000664037
780.0000,0.000663798
779.8000,0.000667021
779.6000,0.000667917
779.4000,0.000666245
779.2000,0.000666902
779.0000,0.00066141
778.8000,0.00065747
778.6000,0.000655859
778.4000,0.00065753
778.2000,0.000654665
778.0000,0.000652158
777.8000,0.000648815
777.6000,0.000647203
777.4000,0.000637532
777.2000,0.000635264
777.0000,0.000629354
776.8000,0.000627564
776.6000,0.000623982
776.4000,0.000623385
776.2000,0.000623683
776.0000,0.00061652
775.8000,0.000614252
775.6000,0.000608999
775.4000,0.000604402
775.2000,0.000602791
775.0000,0.000599448
774.8000,0.000593299
774.6000,0.000594254
774.4000,0.000587509
774.2000,0.000584166
774.0000,0.000577241
773.8000,0.000569601
773.6000,0.000566258
773.4000,0.000562258
773.2000,0.000560169
773.0000,0.000555274
772.8000,0.000556169
772.6000,0.00055611
772.4000,0.00056184
772.2000,0.000565661
772.0000,0.000568526
771.8000,0.000572406
771.6000,0.000575988
771.4000,0.000574257
771.2000,0.000575749
771.0000,0.00057951
770.8000,0.000583569
770.6000,0.000586136
770.4000,0.000584464
770.2000,0.000589777
770.0000,0.000594612
769.8000,0.000601239
769.6000,0.000609954
769.4000,0.000614431
769.2000,0.000614431
769.0000,0.000614729
768.8000,0.000614311
768.6000,0.000613894
768.4000,0.000613715
768.2000,0.000611685
768.0000,0.00061258
767.8000,0.000610013
767.6000,0.000606074
767.4000,0.000607626
767.2000,0.00060685
767.0000,0.000605775
766.8000,0.000602611
766.6000,0.000599507
766.4000,0.000589419
766.2000,0.000583987
766.0000,0.000577062
765.8000,0.00057163
765.6000,0.000564527
765.4000,0.000560109
765.2000,0.000556169
765.0000,0.000552349
764.8000,0.000544171
764.6000,0.000540947
764.4000,0.000539933
764.2000,0.00053844
764.0000,0.000537366
763.8000,0.000531456
763.6000,0.000527278
763.4000,0.000523039
763.2000,0.000524293
763.0000,0.000520652
762.8000,0.000520055
762.6000,0.000518801
762.4000,0.000515398
762.2000,0.000512235
762.0000,0.000512891
761.8000,0.000515637
761.6000,0.000521189
761.4000,0.000518025
761.2000,0.0005151
761.0000,0.000510921
760.8000,0.000513309
760.6000,0.000513369
760.4000,0.000508772
760.2000,0.00050734
760.0000,0.000505668
759.8000,0.000507877
759.6000,0.00050919
759.4000,0.000508175
759.2000,0.000513309
759.0000,0.000513608
758.8000,0.000512115
758.6000,0.000510265
758.4000,0.000507817
758.2000,0.000508295
758.0000,0.000510444
757.8000,0.000511339
757.6000,0.00050925
757.4000,0.000503937
757.2000,0.000501788
757.0000,0.000500356
756.8000,0.000497789
756.6000,0.000491401
756.4000,0.00048591
756.2000,0.00048197
756.0000,0.000476
755.8000,0.00047218
755.6000,0.000464599
755.4000,0.000456719
755.2000,0.000448899
755.0000,0.000445258
754.8000,0.000434692
754.6000,0.000426275
754.4000,0.000421321
754.2000,0.000420724
754.0000,0.000420604
753.8000,0.000417202
753.6000,0.000414157
753.4000,0.000415888
753.2000,0.000417023
753.0000,0.000418336
752.8000,0.00041947
752.6000,0.000421261
752.4000,0.000424484
752.2000,0.000424544
752.0000,0.000425857
751.8000,0.00042729
751.6000,0.000431528
751.4000,0.000434095
751.2000,0.000432185
751.0000,0.000430275
750.8000,0.000426872
750.6000,0.000424544
750.4000,0.000422037
750.2000,0.000416903
750.0000,0.000413919
749.8000,0.000412546
749.6000,0.000408367
749.4000,0.000408665
749.2000,0.000407293
749.0000,0.000410098
748.8000,0.000404726
748.6000,0.000399114
748.4000,0.000397025
748.2000,0.000392667
748.0000,0.000391175
747.8000,0.000396428
747.6000,0.000397562
747.4000,0.000398995
747.2000,0.000393264
747.0000,0.000393324
746.8000,0.000395592
746.6000,0.000392966
746.4000,0.000396309
746.2000,0.000391414
746.0000,0.000388787
745.8000,0.000383773
745.6000,0.000381923
745.4000,0.00038049
745.2000,0.000376013
745.0000,0.000373148
744.8000,0.000365089
744.6000,0.00035315
744.4000,0.000349688
744.2000,0.000340734
744.0000,0.000343957
743.8000,0.000343181
743.6000,0.000338107
743.4000,0.000333153
743.2000,0.000330168
743.0000,0.000328914
742.8000,0.000331183
742.6000,0.000330824
742.4000,0.000333212
742.2000,0.000332973
742.0000,0.00033363
741.8000,0.000335122
741.6000,0.00033948
741.4000,0.00034342
741.2000,0.000342704
741.0000,0.000348434
740.8000,0.000348016
740.6000,0.000344196
740.4000,0.000345927
740.2000,0.000348792
740.0000,0.000182544
739.8000,0.000194543
739.6000,0.000198244
739.4000,0.00020678
739.2000,0.000219017
739.0000,0.000231255
738.8000,0.00024385
738.6000,0.000254237
738.4000,0.000261699
738.2000,0.000273757
738.0000,0.000286591
737.8000,0.000287248
737.6000,0.000285218
737.4000,0.00028092
737.2000,0.00027698
737.0000,0.000273458
736.8000,0.000267489
736.6000,0.000263012
736.4000,0.000264803
736.2000,0.000265937
736.0000,0.000264086
735.8000,0.000254953
735.6000,0.000249163
735.4000,0.000243194
735.2000,0.000239313
735.0000,0.000231911
734.8000,0.000222122
734.6000,0.000213287
734.4000,0.00020296
734.2000,0.000190185
734.0000,0.000180575
733.8000,0.000170904
733.6000,0.000160458
733.4000,0.000148041
733.2000,0.000135625
733.0000,0.00011909
732.8000,9.94503E-005
732.6000,9.18691E-005
732.4000,8.23778E-005
732.2000,6.9663E-005
732.0000,5.31874E-005
731.8000,4.7218E-005
731.6000,4.22037E-005
731.4000,3.77266E-005
731.2000,4.39945E-005
731.0000,5.34262E-005
730.8000,6.38726E-005
730.6000,7.87961E-005
730.4000,9.62865E-005
730.2000,0.000119567
730.0000,0.000141356
729.8000,0.000166785
729.6000,0.000201408
729.4000,0.000227972
729.2000,0.000260027
729.0000,0.000291605
728.8000,0.000323601
728.6000,0.000347181
728.4000,0.000374461
728.2000,0.000395234
728.0000,0.000410695
727.8000,0.000421977
727.6000,0.000432662
727.4000,0.000437319
727.2000,0.000438632
727.0000,0.00044687
726.8000,0.000453436
726.6000,0.000452958
726.4000,0.000456003
726.2000,0.000456839
726.0000,0.000447347
725.8000,0.000440542
725.6000,0.00043111
725.4000,0.00042544
725.2000,0.000414396
725.0000,0.000409024
724.8000,0.000404188
724.6000,0.00040001
724.4000,0.000401741
724.2000,0.000404009
724.0000,0.00040383
723.8000,0.000400368
723.6000,0.000393503
723.4000,0.000393264
723.2000,0.000388489
723.0000,0.000380788
722.8000,0.000377565
722.6000,0.000374043
722.4000,0.00037273
722.2000,0.000367178
722.0000,0.00036479
721.8000,0.000358761
721.6000,0.000350583
721.4000,0.000342704
721.2000,0.000332854
721.0000,0.000322169
720.8000,0.00031405
720.6000,0.00030247
720.4000,0.000297455
720.2000,0.000294829
720.0000,0.000286711
719.8000,0.000284144
719.6000,0.000283009
719.4000,0.00027907
719.2000,0.000274294
719.0000,0.000274593
718.8000,0.000272324
718.6000,0.000271369
718.4000,0.000273697
718.2000,0.000276204
718.0000,0.000277637
717.8000,0.000276563
717.6000,0.000281099
717.4000,0.00028289
717.2000,0.000282054
717.0000,0.000280681
716.8000,0.000280264
716.6000,0.000279129
716.4000,0.000278712
716.2000,0.000279607
716.0000,0.000280502
715.8000,0.000283547
715.6000,0.000285278
715.4000,0.000292262
715.2000,0.000289039
715.0000,0.000287666
714.8000,0.000285517
714.6000,0.000286114
714.4000,0.000279129
714.2000,0.00027704
714.0000,0.000278294
713.8000,0.000272384
713.6000,0.000271548
713.4000,0.000269578
713.2000,0.000267191
713.0000,0.000266713
712.8000,0.000264504
712.6000,0.000258416
712.4000,0.000258236
712.2000,0.000252088
712.0000,0.00025561
711.8000,0.000251431
711.6000,0.000248566
711.4000,0.000248984
711.2000,0.000254237
711.0000,0.00025949
710.8000,0.000255968
710.6000,0.000258595
710.4000,0.000258774
710.2000,0.000261997
710.0000,0.00025943
709.8000,0.000258296
709.6000,0.000254118
709.4000,0.0002537
709.2000,0.000250417
709.0000,0.000245641
708.8000,0.000240627
708.6000,0.000243671
708.4000,0.000241462
708.2000,0.000240209
708.0000,0.000241283
707.8000,0.000239552
707.6000,0.000245641
707.4000,0.000244984
707.2000,0.000246298
707.0000,0.000241104
706.8000,0.000236985
706.6000,0.000236269
706.4000,0.000239194
706.2000,0.00024003
706.0000,0.000241164
705.8000,0.000244626
705.6000,0.000247074
705.4000,0.000244507
705.2000,0.000244865
705.0000,0.000243611
704.8000,0.000239433
704.6000,0.000232926
704.4000,0.000226957
704.2000,0.000223733
704.0000,0.000216331
703.8000,0.00021454
703.6000,0.000215436
703.4000,0.000213466
703.2000,0.000210004
703.0000,0.000203199
702.8000,0.000198662
702.6000,0.000196035
702.4000,0.000192275
702.2000,0.000191439
702.0000,0.000190782
701.8000,0.000189409
701.6000,0.00018923
701.4000,0.000190782
701.2000,0.000190126
701.0000,0.00018923
700.8000,0.000190782
700.6000,0.000192095
700.4000,0.000194065
700.2000,0.00019317
700.0000,0.000196931
699.8000,0.000200811
699.6000,0.000201885
699.4000,0.000201288
699.2000,0.00020099
699.0000,0.000198363
698.8000,0.000199318
698.6000,0.000196035
698.4000,0.0001912
698.2000,0.000186425
698.0000,0.000182246
697.8000,0.00018535
697.6000,0.000188812
697.4000,0.000184634
697.2000,0.000187499
697.0000,0.000188096
696.8000,0.000187738
696.6000,0.000189469
696.4000,0.000188156
696.2000,0.000188574
696.0000,0.000188574
695.8000,0.000187678
695.6000,0.00018332
695.4000,0.000183798
695.2000,0.000182962
695.0000,0.000182903
694.8000,0.000180276
694.6000,0.000173531
694.4000,0.000166725
694.2000,0.000165651
694.0000,0.000160458
693.8000,0.000155384
693.6000,0.000152339
693.4000,0.000146012
693.2000,0.000140579
693.0000,0.00013861
692.8000,0.000135088
692.6000,0.000134013
692.4000,0.000131625
692.2000,0.000128163
692.0000,0.000123746
691.8000,0.000121836
691.6000,0.000123149
691.4000,0.000122074
691.2000,0.000121239
691.0000,0.000123268
690.8000,0.000119149
690.6000,0.000120463
690.4000,0.000118075
690.2000,0.000119388
690.0000,0.000119448
689.8000,0.000117478
689.6000,0.000118552
689.4000,0.000118731
689.2000,0.000119448
689.0000,0.000120761
688.8000,0.00012488
688.6000,0.000127686
688.4000,0.00013079
688.2000,0.000129894
688.0000,0.000133177
687.8000,0.000131446
687.6000,0.000129059
687.4000,0.000130372
687.2000,0.000130133
687.0000,0.00012882
686.8000,0.000127984
686.6000,0.000126432
686.4000,0.000121597
686.2000,0.000120284
686.0000,0.000121358
685.8000,0.000119448
685.6000,0.000117478
685.4000,0.000115508
685.2000,0.000116344
685.0000,0.000119627
684.8000,0.000118314
684.6000,0.000119448
684.4000,0.000126193
684.2000,0.000125716
684.0000,0.000129059
683.8000,0.000130133
683.6000,0.000133416
683.4000,0.000131267
683.2000,0.00013079
683.0000,0.000132103
682.8000,0.000132521
682.6000,0.000135804
682.4000,0.000137117
682.2000,0.000138669
682.0000,0.000132521
681.8000,0.00013079
681.6000,0.000129655
681.4000,0.000126671
681.2000,0.000122492
681.0000,0.000116403
680.8000,0.000113598
680.6000,0.000112046
680.4000,0.000109897
680.2000,0.00011127
680.0000,0.000114971
679.8000,0.000118314
679.6000,0.000115687
679.4000,0.000115269
679.2000,0.000112702
679.0000,0.000109837
678.8000,0.000108703
678.6000,0.000108524
678.4000,0.000108703
678.2000,0.000109121
678.0000,0.000111568
677.8000,0.000112643
677.6000,0.000111747
677.4000,0.000111807
677.2000,0.000113538
677.0000,0.000113538
676.8000,0.000112225
676.6000,0.000107628
676.4000,0.000106733
676.2000,0.000104286
676.0000,0.000107807
675.8000,0.000110255
675.6000,0.000113777
675.4000,0.000115508
675.2000,0.000115269
675.0000,0.000118135
674.8000,0.000119448
674.6000,0.000123149
674.4000,0.000125358
674.2000,0.000128879
674.0000,0.000129118
673.8000,0.000133655
673.6000,0.000135207
673.4000,0.000138968
673.2000,0.000141356
673.0000,0.000142908
672.8000,0.000145057
672.6000,0.000140878
672.4000,0.000140042
672.2000,0.000136759
672.0000,0.00013658
671.8000,0.000136998
671.6000,0.000132819
671.4000,0.000129775
671.2000,0.000125775
671.0000,0.000117657
670.8000,0.000114851
670.6000,0.000107628
670.4000,0.000105599
670.2000,9.99278E-005
670.0000,9.71222E-005
669.8000,9.59283E-005
669.6000,9.34809E-005
669.4000,9.61671E-005
669.2000,9.46748E-005
669.0000,9.50926E-005
668.8000,9.27049E-005
668.6000,9.04365E-005
668.4000,9.11528E-005
668.2000,9.11528E-005
668.0000,9.0735E-005
667.8000,9.53314E-005
667.6000,9.35406E-005
667.4000,9.13916E-005
667.2000,9.24064E-005
667.0000,8.98395E-005
666.8000,8.5661E-005
666.6000,8.32135E-005
666.4000,8.01691E-005
666.2000,7.96916E-005
666.0000,7.64681E-005
665.8000,7.81992E-005
665.6000,8.17212E-005
665.4000,8.10645E-005
665.2000,7.93334E-005
665.0000,7.97513E-005
664.8000,7.95125E-005
664.6000,7.29461E-005
664.4000,7.07374E-005
664.2000,7.16329E-005
664.0000,6.54247E-005
663.8000,6.78721E-005
663.6000,7.18119E-005
663.4000,7.15732E-005
663.2000,7.11553E-005
663.0000,6.63201E-005
662.8000,6.56635E-005
662.6000,5.90971E-005
662.4000,5.46798E-005
662.2000,5.05012E-005
662.0000,4.65614E-005
661.8000,4.43527E-005
661.6000,4.28006E-005
661.4000,4.41736E-005
661.2000,4.17261E-005
661.0000,3.9995E-005
660.8000,3.89205E-005
660.6000,3.16378E-005
660.4000,2.65639E-005
660.2000,2.32807E-005
660.0000,1.75501E-005
659.8000,1.62965E-005
659.6000,1.68934E-005
659.4000,1.75501E-005
659.2000,1.46847E-005
659.0000,1.12225E-005
658.8000,1.2297E-005
658.6000,5.31277E-006
658.4000,-4.17858E-007
658.2000,-5.0143E-006
658.0000,-3.93981E-006
657.8000,-4.59644E-006
657.6000,-5.73063E-006
657.4000,-2.86531E-006
657.2000,-2.86531E-006
657.0000,-4.41736E-006
656.8000,-1.31327E-006
656.6000,-1.13419E-006
656.4000,-2.86531E-006
656.2000,-5.07399E-006
656.0000,-5.49185E-006
655.8000,-7.93931E-006
655.6000,-1.39087E-005
655.4000,-1.49832E-005
655.2000,-1.49235E-005
655.0000,-1.31924E-005
654.8000,-1.42669E-005
654.6000,-1.45057E-005
654.4000,-1.45057E-005
654.2000,-1.25358E-005
654.0000,-1.18791E-005
653.8000,-1.20582E-005
653.6000,-1.27745E-005
653.4000,-1.49832E-005
653.2000,-1.60577E-005
653.0000,-1.36102E-005
652.8000,-1.39087E-005
652.6000,-1.3849E-005
652.4000,-9.43166E-006
652.2000,-7.46176E-006
652.0000,-6.20818E-006
651.8000,-6.56635E-006
651.6000,-6.80512E-006
651.4000,-7.87961E-006
651.2000,-7.76023E-006
651.0000,-1.51623E-005
650.8000,-1.71919E-005
650.6000,-2.22062E-005
650.4000,-2.85935E-005
650.2000,-3.34287E-005
650.0000,-3.91593E-005
649.8000,-4.99639E-005
649.6000,-5.5217E-005
649.4000,-5.61124E-005
649.2000,-5.99328E-005
649.0000,-6.45293E-005
648.8000,-6.28578E-005
648.6000,-6.52456E-005
648.4000,-7.25283E-005
648.2000,-7.39012E-005
648.0000,-7.18716E-005
647.8000,-7.03196E-005
647.6000,-7.56324E-005
647.4000,-7.84977E-005
647.2000,-7.40803E-005
647.0000,-7.18716E-005
646.8000,-7.14538E-005
646.6000,-6.83497E-005
646.4000,-6.88272E-005
646.2000,-7.01405E-005
646.0000,-7.01405E-005
645.8000,-7.16926E-005
645.6000,-7.65278E-005
645.4000,-7.93931E-005
645.2000,-7.61099E-005
645.0000,-7.74232E-005
644.8000,-8.05273E-005
644.6000,-8.09451E-005
644.4000,-7.7662E-005
644.2000,-7.25283E-005
644.0000,-7.40803E-005
643.8000,-7.23492E-005
643.6000,-6.83497E-005
643.4000,-6.66186E-005
643.2000,-6.37533E-005
643.0000,-5.97537E-005
642.8000,-5.46798E-005
642.6000,-5.09787E-005
642.4000,-5.20532E-005
642.2000,-5.05012E-005
642.0000,-5.4441E-005
641.8000,-5.55752E-005
641.6000,-5.66497E-005
641.4000,-5.64706E-005
641.2000,-5.90971E-005
641.0000,-6.04701E-005
640.8000,-5.86196E-005
640.6000,-5.77838E-005
640.4000,-5.97537E-005
640.2000,-5.99925E-005
640.0000,-5.82614E-005
639.8000,-5.5217E-005
639.6000,-5.6769E-005
639.4000,-5.79032E-005
639.2000,-5.05609E-005
639.0000,-4.3517E-005
638.8000,-3.91593E-005
638.6000,-3.60552E-005
638.4000,-2.9847E-005
638.2000,-2.80562E-005
638.0000,-1.89827E-005
637.8000,-1.61174E-005
637.6000,-1.50429E-005
637.4000,-1.03868E-005
637.2000,-9.55105E-006
637.0000,-6.86482E-006
636.8000,-3.10409E-006
636.6000,-5.49185E-006
636.4000,-8.35717E-006
636.2000,-5.73063E-006
636.0000,-9.55105E-006
635.8000,-1.28342E-005
635.6000,-8.83472E-006
635.4000,-1.03868E-005
635.2000,-1.68337E-005
635.0000,-1.70128E-005
634.8000,-2.09526E-005
634.6000,-2.537E-005
634.4000,-2.60863E-005
634.2000,-3.22348E-005
634.0000,-3.11603E-005
633.8000,-3.35481E-005
633.6000,-3.68909E-005
633.4000,-3.90996E-005
633.2000,-3.90996E-005
633.0000,-4.20246E-005
632.8000,-4.39945E-005
632.6000,-4.57256E-005
632.4000,-5.06206E-005
632.2000,-5.08593E-005
632.0000,-4.70389E-005
631.8000,-4.97251E-005
631.6000,-5.03818E-005
631.4000,-4.44124E-005
631.2000,-4.04726E-005
631.0000,-3.66521E-005
630.8000,-3.37868E-005
630.6000,-2.85935E-005
630.4000,-2.76383E-005
630.2000,-2.4594E-005
630.0000,-2.48327E-005
629.8000,-1.90424E-005
629.6000,-1.68337E-005
629.4000,-1.5998E-005
629.2000,-1.03868E-005
629.0000,-6.62604E-006
628.8000,-6.20818E-006
628.6000,-3.9995E-006
628.4000,-2.38776E-007
628.2000,0
628.0000,-3.9995E-006
627.8000,-3.10409E-006
627.6000,-2.68623E-006
627.4000,-4.65614E-006
627.2000,-3.9995E-006
627.0000,-7.52145E-006
626.8000,-6.20818E-006
626.6000,-9.49135E-006
626.4000,-1.06255E-005
626.2000,-9.49135E-006
626.0000,-1.06255E-005
625.8000,-1.17E-005
625.6000,-1.03868E-005
625.4000,-8.83472E-006
625.2000,-9.96891E-006
625.0000,-1.17597E-005
624.8000,-1.24164E-005
624.6000,-1.28342E-005
624.4000,-1.59383E-005
624.2000,-1.77291E-005
624.0000,-1.90424E-005
623.8000,-1.88036E-005
623.6000,-1.77291E-005
623.4000,-1.37296E-005
623.2000,-1.43863E-005
623.0000,-1.17597E-005
622.8000,-9.96891E-006
622.6000,-9.49135E-006
622.4000,-9.31227E-006
622.2000,-9.0735E-006
622.0000,-6.68573E-006
621.8000,-1.13419E-006
621.6000,2.44746E-006
621.4000,6.0291E-006
621.2000,9.0735E-006
621.0000,1.4446E-005
620.8000,1.77888E-005
620.6000,2.14899E-005
620.4000,2.46536E-005
620.2000,2.81756E-005
620.0000,3.64134E-005
619.8000,3.90996E-005
619.6000,4.32782E-005
619.4000,4.72777E-005
619.2000,4.72777E-005
619.0000,4.94864E-005
618.8000,5.08593E-005
618.6000,4.88297E-005
618.4000,5.19338E-005
618.2000,5.52767E-005
618.0000,6.14849E-005
617.8000,6.30369E-005
617.6000,6.81109E-005
617.4000,7.49757E-005
617.2000,7.61099E-005
617.0000,7.71844E-005
616.8000,7.96319E-005
616.6000,8.0587E-005
616.4000,7.99303E-005
616.2000,8.19002E-005
616.0000,8.7213E-005
